wavelength(nm), Y
1601.67, -3.52842
1601.56, -3.52842
1601.45, -3.52842
1601.35, -3.52842
1601.24, -3.52842
1601.13, -3.52842
1601.03, -3.52842
1600.92, -3.52842
1600.81, -3.52842
1600.71, -3.52842
1600.6, -3.52842
1600.49, -3.52842
1600.39, -3.52842
1600.28, -3.52842
1600.17, -3.52842
1600.07, -3.52842
1599.96, -3.52842
1599.85, -3.52843
1599.75, -3.52843
1599.64, -3.52844
1599.53, -3.52845
1599.43, -3.52845
1599.32, -3.52846
1599.21, -3.52847
1599.11, -3.52847
1599, -3.52848
1598.9, -3.52849
1598.79, -3.52849
1598.68, -3.5285
1598.58, -3.52851
1598.47, -3.52851
1598.36, -3.52852
1598.26, -3.52853
1598.15, -3.52853
1598.04, -3.52854
1597.94, -3.52855
1597.83, -3.52855
1597.73, -3.52857
1597.62, -3.52859
1597.51, -3.5286
1597.41, -3.52862
1597.3, -3.52863
1597.19, -3.52865
1597.09, -3.52866
1596.98, -3.52868
1596.88, -3.52869
1596.77, -3.52871
1596.66, -3.52873
1596.56, -3.52874
1596.45, -3.52876
1596.35, -3.52877
1596.24, -3.52879
1596.13, -3.5288
1596.03, -3.52882
1595.92, -3.52884
1595.82, -3.52885
1595.71, -3.52887
1595.6, -3.52889
1595.5, -3.52891
1595.39, -3.52894
1595.29, -3.52896
1595.18, -3.52899
1595.07, -3.52901
1594.97, -3.52904
1594.86, -3.52906
1594.76, -3.52909
1594.65, -3.52911
1594.54, -3.52914
1594.44, -3.52916
1594.33, -3.52919
1594.23, -3.52921
1594.12, -3.52924
1594.02, -3.52926
1593.91, -3.52929
1593.8, -3.52931
1593.7, -3.52934
1593.59, -3.52936
1593.49, -3.52939
1593.38, -3.52942
1593.28, -3.52945
1593.17, -3.52948
1593.06, -3.52952
1592.96, -3.52955
1592.85, -3.52958
1592.75, -3.52962
1592.64, -3.52965
1592.54, -3.52968
1592.43, -3.52972
1592.33, -3.52975
1592.22, -3.52978
1592.11, -3.52981
1592.01, -3.52985
1591.9, -3.52988
1591.8, -3.52991
1591.69, -3.52995
1591.59, -3.52998
1591.48, -3.53001
1591.38, -3.53005
1591.27, -3.53008
1591.16, -3.53012
1591.06, -3.53016
1590.95, -3.5302
1590.85, -3.53024
1590.74, -3.53028
1590.64, -3.53032
1590.53, -3.53036
1590.43, -3.5304
1590.32, -3.53044
1590.22, -3.53048
1590.11, -3.53051
1590.01, -3.53055
1589.9, -3.53059
1589.8, -3.53063
1589.69, -3.53067
1589.59, -3.53071
1589.48, -3.53075
1589.38, -3.53079
1589.27, -3.53083
1589.17, -3.53087
1589.06, -3.53091
1588.96, -3.53096
1588.85, -3.531
1588.74, -3.53105
1588.64, -3.53109
1588.53, -3.53113
1588.43, -3.53118
1588.32, -3.53122
1588.22, -3.53127
1588.11, -3.53131
1588.01, -3.53135
1587.9, -3.5314
1587.8, -3.53144
1587.69, -3.53148
1587.59, -3.53153
1587.49, -3.53157
1587.38, -3.53162
1587.28, -3.53166
1587.17, -3.5317
1587.07, -3.53175
1586.96, -3.5318
1586.86, -3.53184
1586.75, -3.53189
1586.65, -3.53194
1586.54, -3.53199
1586.44, -3.53204
1586.33, -3.53208
1586.23, -3.53213
1586.12, -3.53218
1586.02, -3.53223
1585.91, -3.53228
1585.81, -3.53232
1585.7, -3.53237
1585.6, -3.53242
1585.49, -3.53247
1585.39, -3.53252
1585.29, -3.53256
1585.18, -3.53261
1585.08, -3.53266
1584.97, -3.53271
1584.87, -3.53276
1584.76, -3.53281
1584.66, -3.53286
1584.55, -3.53291
1584.45, -3.53297
1584.34, -3.53302
1584.24, -3.53307
1584.14, -3.53312
1584.03, -3.53318
1583.93, -3.53323
1583.82, -3.53328
1583.72, -3.53333
1583.61, -3.53339
1583.51, -3.53344
1583.4, -3.53349
1583.3, -3.53354
1583.2, -3.5336
1583.09, -3.53365
1582.99, -3.5337
1582.88, -3.53375
1582.78, -3.53381
1582.67, -3.53386
1582.57, -3.53392
1582.47, -3.53398
1582.36, -3.53404
1582.26, -3.5341
1582.15, -3.53416
1582.05, -3.53421
1581.95, -3.53427
1581.84, -3.53433
1581.74, -3.53439
1581.63, -3.53445
1581.53, -3.53451
1581.42, -3.53457
1581.32, -3.53462
1581.22, -3.53468
1581.11, -3.53474
1581.01, -3.5348
1580.9, -3.53486
1580.8, -3.53492
1580.7, -3.53498
1580.59, -3.53504
1580.49, -3.5351
1580.38, -3.53517
1580.28, -3.53524
1580.18, -3.5353
1580.07, -3.53537
1579.97, -3.53544
1579.86, -3.5355
1579.76, -3.53557
1579.66, -3.53564
1579.55, -3.5357
1579.45, -3.53577
1579.35, -3.53584
1579.24, -3.5359
1579.14, -3.53597
1579.03, -3.53603
1578.93, -3.5361
1578.83, -3.53617
1578.72, -3.53623
1578.62, -3.5363
1578.52, -3.53637
1578.41, -3.53644
1578.31, -3.53652
1578.2, -3.53659
1578.1, -3.53667
1578, -3.53675
1577.89, -3.53682
1577.79, -3.5369
1577.69, -3.53697
1577.58, -3.53705
1577.48, -3.53712
1577.38, -3.5372
1577.27, -3.53728
1577.17, -3.53735
1577.06, -3.53743
1576.96, -3.5375
1576.86, -3.53758
1576.75, -3.53766
1576.65, -3.53773
1576.55, -3.53781
1576.44, -3.53788
1576.34, -3.53796
1576.24, -3.53805
1576.13, -3.53814
1576.03, -3.53822
1575.93, -3.53831
1575.82, -3.53839
1575.72, -3.53848
1575.62, -3.53856
1575.51, -3.53865
1575.41, -3.53873
1575.31, -3.53882
1575.2, -3.53891
1575.1, -3.53899
1575, -3.53908
1574.89, -3.53916
1574.79, -3.53925
1574.69, -3.53933
1574.58, -3.53942
1574.48, -3.5395
1574.38, -3.53959
1574.27, -3.53968
1574.17, -3.53977
1574.07, -3.53987
1573.96, -3.53996
1573.86, -3.54006
1573.76, -3.54015
1573.66, -3.54025
1573.55, -3.54034
1573.45, -3.54043
1573.35, -3.54053
1573.24, -3.54062
1573.14, -3.54072
1573.04, -3.54081
1572.93, -3.54091
1572.83, -3.541
1572.73, -3.5411
1572.63, -3.54119
1572.52, -3.54129
1572.42, -3.54138
1572.32, -3.54148
1572.21, -3.54157
1572.11, -3.54167
1572.01, -3.54177
1571.91, -3.54188
1571.8, -3.54198
1571.7, -3.54208
1571.6, -3.54219
1571.49, -3.54229
1571.39, -3.54239
1571.29, -3.54249
1571.19, -3.5426
1571.08, -3.5427
1570.98, -3.5428
1570.88, -3.5429
1570.77, -3.54301
1570.67, -3.54311
1570.57, -3.54321
1570.47, -3.54331
1570.36, -3.54342
1570.26, -3.54352
1570.16, -3.54362
1570.06, -3.54373
1569.95, -3.54384
1569.85, -3.54395
1569.75, -3.54406
1569.65, -3.54417
1569.54, -3.54428
1569.44, -3.54439
1569.34, -3.5445
1569.24, -3.54461
1569.13, -3.54472
1569.03, -3.54483
1568.93, -3.54494
1568.83, -3.54505
1568.72, -3.54516
1568.62, -3.54527
1568.52, -3.54538
1568.42, -3.54549
1568.31, -3.5456
1568.21, -3.54571
1568.11, -3.54582
1568.01, -3.54593
1567.9, -3.54604
1567.8, -3.54616
1567.7, -3.54628
1567.6, -3.54639
1567.5, -3.54651
1567.39, -3.54663
1567.29, -3.54675
1567.19, -3.54686
1567.09, -3.54698
1566.98, -3.5471
1566.88, -3.54722
1566.78, -3.54733
1566.68, -3.54745
1566.58, -3.54757
1566.47, -3.54769
1566.37, -3.5478
1566.27, -3.54792
1566.17, -3.54804
1566.06, -3.54815
1565.96, -3.54827
1565.86, -3.54839
1565.76, -3.54852
1565.66, -3.54865
1565.55, -3.54877
1565.45, -3.5489
1565.35, -3.54903
1565.25, -3.54915
1565.15, -3.54928
1565.04, -3.54941
1564.94, -3.54953
1564.84, -3.54966
1564.74, -3.54979
1564.64, -3.54991
1564.54, -3.55004
1564.43, -3.55016
1564.33, -3.55029
1564.23, -3.55042
1564.13, -3.55054
1564.03, -3.55067
1563.92, -3.5508
1563.82, -3.55092
1563.72, -3.55106
1563.62, -3.5512
1563.52, -3.55134
1563.42, -3.55148
1563.31, -3.55162
1563.21, -3.55176
1563.11, -3.55189
1563.01, -3.55203
1562.91, -3.55217
1562.8, -3.55231
1562.7, -3.55245
1562.6, -3.55259
1562.5, -3.55272
1562.4, -3.55286
1562.3, -3.553
1562.2, -3.55314
1562.09, -3.55328
1561.99, -3.55342
1561.89, -3.55356
1561.79, -3.55369
1561.69, -3.55384
1561.59, -3.554
1561.48, -3.55415
1561.38, -3.5543
1561.28, -3.55446
1561.18, -3.55461
1561.08, -3.55476
1560.98, -3.55492
1560.88, -3.55507
1560.77, -3.55522
1560.67, -3.55538
1560.57, -3.55553
1560.47, -3.55568
1560.37, -3.55584
1560.27, -3.55599
1560.17, -3.55615
1560.06, -3.5563
1559.96, -3.55645
1559.86, -3.55661
1559.76, -3.55676
1559.66, -3.55692
1559.56, -3.55709
1559.46, -3.55726
1559.36, -3.55743
1559.25, -3.5576
1559.15, -3.55777
1559.05, -3.55794
1558.95, -3.55812
1558.85, -3.55829
1558.75, -3.55846
1558.65, -3.55863
1558.55, -3.5588
1558.45, -3.55897
1558.34, -3.55914
1558.24, -3.55931
1558.14, -3.55948
1558.04, -3.55966
1557.94, -3.55983
1557.84, -3.56
1557.74, -3.56017
1557.64, -3.56034
1557.54, -3.56053
1557.44, -3.56072
1557.33, -3.56091
1557.23, -3.56109
1557.13, -3.56128
1557.03, -3.56147
1556.93, -3.56166
1556.83, -3.56185
1556.73, -3.56204
1556.63, -3.56223
1556.53, -3.56242
1556.43, -3.56261
1556.33, -3.5628
1556.22, -3.56299
1556.12, -3.56318
1556.02, -3.56337
1555.92, -3.56356
1555.82, -3.56375
1555.72, -3.56394
1555.62, -3.56413
1555.52, -3.56433
1555.42, -3.56453
1555.32, -3.56474
1555.22, -3.56495
1555.12, -3.56515
1555.02, -3.56536
1554.92, -3.56557
1554.81, -3.56578
1554.71, -3.56598
1554.61, -3.56619
1554.51, -3.5664
1554.41, -3.56661
1554.31, -3.56681
1554.21, -3.56702
1554.11, -3.56723
1554.01, -3.56744
1553.91, -3.56764
1553.81, -3.56785
1553.71, -3.56806
1553.61, -3.56826
1553.51, -3.56847
1553.41, -3.56869
1553.31, -3.56892
1553.21, -3.56914
1553.11, -3.56936
1553.01, -3.56958
1552.91, -3.56981
1552.81, -3.57003
1552.7, -3.57025
1552.6, -3.57048
1552.5, -3.5707
1552.4, -3.57092
1552.3, -3.57114
1552.2, -3.57137
1552.1, -3.57159
1552, -3.57181
1551.9, -3.57204
1551.8, -3.57226
1551.7, -3.57248
1551.6, -3.5727
1551.5, -3.57293
1551.4, -3.57316
1551.3, -3.57339
1551.2, -3.57363
1551.1, -3.57386
1551, -3.5741
1550.9, -3.57433
1550.8, -3.57457
1550.7, -3.5748
1550.6, -3.57504
1550.5, -3.57527
1550.4, -3.57551
1550.3, -3.57575
1550.2, -3.57598
1550.1, -3.57622
1550, -3.57645
1549.9, -3.57669
1549.8, -3.57692
1549.7, -3.57716
1549.6, -3.57739
1549.5, -3.57763
1549.4, -3.57787
1549.3, -3.57811
1549.2, -3.57835
1549.1, -3.57859
1549, -3.57884
1548.9, -3.57908
1548.8, -3.57932
1548.7, -3.57957
1548.6, -3.57981
1548.5, -3.58005
1548.4, -3.5803
1548.3, -3.58055
1548.2, -3.58079
1548.1, -3.58104
1548, -3.58129
1547.9, -3.58154
1547.8, -3.58178
1547.7, -3.58203
1547.6, -3.58228
1547.5, -3.58253
1547.4, -3.58278
1547.3, -3.58303
1547.21, -3.58328
1547.11, -3.58354
1547.01, -3.58379
1546.91, -3.58405
1546.81, -3.5843
1546.71, -3.58456
1546.61, -3.58481
1546.51, -3.58507
1546.41, -3.58532
1546.31, -3.58557
1546.21, -3.58583
1546.11, -3.58608
1546.01, -3.58634
1545.91, -3.58659
1545.81, -3.58685
1545.71, -3.5871
1545.61, -3.58735
1545.51, -3.58761
1545.41, -3.58786
1545.31, -3.58812
1545.21, -3.58838
1545.12, -3.58865
1545.02, -3.58891
1544.92, -3.58917
1544.82, -3.58943
1544.72, -3.5897
1544.62, -3.58996
1544.52, -3.59022
1544.42, -3.59048
1544.32, -3.59075
1544.22, -3.59101
1544.12, -3.59127
1544.02, -3.59153
1543.92, -3.5918
1543.82, -3.59206
1543.73, -3.59232
1543.63, -3.59258
1543.53, -3.59285
1543.43, -3.59311
1543.33, -3.59337
1543.23, -3.59364
1543.13, -3.59391
1543.03, -3.59418
1542.93, -3.59445
1542.83, -3.59472
1542.73, -3.59499
1542.64, -3.59527
1542.54, -3.59554
1542.44, -3.59581
1542.34, -3.59608
1542.24, -3.59635
1542.14, -3.59662
1542.04, -3.59689
1541.94, -3.59716
1541.84, -3.59743
1541.74, -3.5977
1541.65, -3.59797
1541.55, -3.59824
1541.45, -3.59851
1541.35, -3.59879
1541.25, -3.59906
1541.15, -3.59934
1541.05, -3.59962
1540.95, -3.59989
1540.85, -3.60017
1540.76, -3.60045
1540.66, -3.60073
1540.56, -3.60101
1540.46, -3.60129
1540.36, -3.60156
1540.26, -3.60184
1540.16, -3.60212
1540.06, -3.6024
1539.97, -3.60268
1539.87, -3.60296
1539.77, -3.60323
1539.67, -3.60351
1539.57, -3.60379
1539.47, -3.60407
1539.37, -3.60435
1539.27, -3.60463
1539.18, -3.60491
1539.08, -3.6052
1538.98, -3.60548
1538.88, -3.60576
1538.78, -3.60605
1538.68, -3.60633
1538.58, -3.60662
1538.49, -3.6069
1538.39, -3.60719
1538.29, -3.60747
1538.19, -3.60776
1538.09, -3.60804
1537.99, -3.60832
1537.9, -3.60861
1537.8, -3.60889
1537.7, -3.60918
1537.6, -3.60946
1537.5, -3.60975
1537.4, -3.61003
1537.3, -3.61032
1537.21, -3.6106
1537.11, -3.61089
1537.01, -3.61118
1536.91, -3.61147
1536.81, -3.61175
1536.71, -3.61204
1536.62, -3.61233
1536.52, -3.61262
1536.42, -3.6129
1536.32, -3.61319
1536.22, -3.61348
1536.13, -3.61377
1536.03, -3.61405
1535.93, -3.61434
1535.83, -3.61463
1535.73, -3.61492
1535.63, -3.6152
1535.54, -3.61549
1535.44, -3.61578
1535.34, -3.61607
1535.24, -3.61636
1535.14, -3.61664
1535.05, -3.61693
1534.95, -3.61722
1534.85, -3.6175
1534.75, -3.61779
1534.65, -3.61808
1534.56, -3.61837
1534.46, -3.61865
1534.36, -3.61894
1534.26, -3.61923
1534.16, -3.61951
1534.07, -3.6198
1533.97, -3.62009
1533.87, -3.62038
1533.77, -3.62066
1533.67, -3.62095
1533.58, -3.62124
1533.48, -3.62152
1533.38, -3.62181
1533.28, -3.6221
1533.18, -3.62238
1533.09, -3.62267
1532.99, -3.62295
1532.89, -3.62323
1532.79, -3.62351
1532.7, -3.6238
1532.6, -3.62408
1532.5, -3.62436
1532.4, -3.62465
1532.3, -3.62493
1532.21, -3.62521
1532.11, -3.6255
1532.01, -3.62578
1531.91, -3.62606
1531.82, -3.62634
1531.72, -3.62663
1531.62, -3.62691
1531.52, -3.62719
1531.43, -3.62748
1531.33, -3.62776
1531.23, -3.62804
1531.13, -3.62832
1531.03, -3.62859
1530.94, -3.62887
1530.84, -3.62915
1530.74, -3.62942
1530.64, -3.6297
1530.55, -3.62998
1530.45, -3.63025
1530.35, -3.63053
1530.25, -3.6308
1530.16, -3.63108
1530.06, -3.63136
1529.96, -3.63163
1529.87, -3.63191
1529.77, -3.63219
1529.67, -3.63246
1529.57, -3.63274
1529.48, -3.63302
1529.38, -3.63329
1529.28, -3.63357
1529.18, -3.63384
1529.09, -3.63411
1528.99, -3.63438
1528.89, -3.63465
1528.79, -3.63491
1528.7, -3.63518
1528.6, -3.63545
1528.5, -3.63572
1528.41, -3.63599
1528.31, -3.63626
1528.21, -3.63653
1528.11, -3.6368
1528.02, -3.63707
1527.92, -3.63734
1527.82, -3.63761
1527.72, -3.63787
1527.63, -3.63814
1527.53, -3.63841
1527.43, -3.63868
1527.34, -3.63895
1527.24, -3.63922
1527.14, -3.63948
1527.05, -3.63974
1526.95, -3.64001
1526.85, -3.64027
1526.75, -3.64053
1526.66, -3.6408
1526.56, -3.64106
1526.46, -3.64132
1526.37, -3.64159
1526.27, -3.64185
1526.17, -3.64211
1526.08, -3.64237
1525.98, -3.64264
1525.88, -3.6429
1525.78, -3.64316
1525.69, -3.64343
1525.59, -3.64369
1525.49, -3.64395
1525.4, -3.64422
1525.3, -3.64448
1525.2, -3.64474
1525.11, -3.645
1525.01, -3.64526
1524.91, -3.64552
1524.82, -3.64578
1524.72, -3.64604
1524.62, -3.6463
1524.53, -3.64656
1524.43, -3.64682
1524.33, -3.64708
1524.24, -3.64734
1524.14, -3.6476
1524.04, -3.64786
1523.95, -3.64812
1523.85, -3.64838
1523.75, -3.64864
1523.66, -3.6489
1523.56, -3.64916
1523.46, -3.64942
1523.37, -3.64968
1523.27, -3.64994
1523.17, -3.6502
1523.08, -3.65046
1522.98, -3.65072
1522.88, -3.65098
1522.79, -3.65123
1522.69, -3.65149
1522.59, -3.65175
1522.5, -3.65201
1522.4, -3.65227
1522.3, -3.65253
1522.21, -3.65279
1522.11, -3.65305
1522.01, -3.65331
1521.92, -3.65357
1521.82, -3.65383
1521.73, -3.65409
1521.63, -3.65435
1521.53, -3.65461
1521.44, -3.65487
1521.34, -3.65513
1521.24, -3.65539
1521.15, -3.65565
1521.05, -3.65592
1520.95, -3.65618
1520.86, -3.65644
1520.76, -3.6567
1520.67, -3.65696
1520.57, -3.65723
1520.47, -3.65749
1520.38, -3.65775
1520.28, -3.65801
1520.18, -3.65827
1520.09, -3.65854
1519.99, -3.6588
1519.9, -3.65906
1519.8, -3.65932
1519.7, -3.65958
1519.61, -3.65985
1519.51, -3.66011
1519.42, -3.66037
1519.32, -3.66064
1519.22, -3.6609
1519.13, -3.66117
1519.03, -3.66143
1518.94, -3.6617
1518.84, -3.66196
1518.74, -3.66223
1518.65, -3.66249
1518.55, -3.66276
1518.46, -3.66303
1518.36, -3.66329
1518.26, -3.66356
1518.17, -3.66382
1518.07, -3.66409
1517.98, -3.66435
1517.88, -3.66462
1517.78, -3.66489
1517.69, -3.66515
1517.59, -3.66542
1517.5, -3.66568
1517.4, -3.66595
1517.3, -3.66622
1517.21, -3.66649
1517.11, -3.66676
1517.02, -3.66703
1516.92, -3.6673
1516.83, -3.66757
1516.73, -3.66784
1516.63, -3.6681
1516.54, -3.66837
1516.44, -3.66864
1516.35, -3.66891
1516.25, -3.66918
1516.16, -3.66945
1516.06, -3.66972
1515.96, -3.66999
1515.87, -3.67026
1515.77, -3.67053
1515.68, -3.6708
1515.58, -3.67107
1515.49, -3.67134
1515.39, -3.67161
1515.29, -3.67188
1515.2, -3.67216
1515.1, -3.67243
1515.01, -3.6727
1514.91, -3.67298
1514.82, -3.67325
1514.72, -3.67352
1514.63, -3.6738
1514.53, -3.67407
1514.44, -3.67434
1514.34, -3.67462
1514.24, -3.67489
1514.15, -3.67516
1514.05, -3.67544
1513.96, -3.67571
1513.86, -3.67598
1513.77, -3.67626
1513.67, -3.67653
1513.58, -3.6768
1513.48, -3.67708
1513.39, -3.67736
1513.29, -3.67763
1513.2, -3.67791
1513.1, -3.67819
1513, -3.67846
1512.91, -3.67874
1512.81, -3.67902
1512.72, -3.6793
1512.62, -3.67957
1512.53, -3.67985
1512.43, -3.68013
1512.34, -3.68041
1512.24, -3.68068
1512.15, -3.68096
1512.05, -3.68124
1511.96, -3.68151
1511.86, -3.68179
1511.77, -3.68207
1511.67, -3.68235
1511.58, -3.68262
1511.48, -3.68291
1511.39, -3.68319
1511.29, -3.68347
1511.2, -3.68375
1511.1, -3.68404
1511.01, -3.68432
1510.91, -3.6846
1510.82, -3.68489
1510.72, -3.68517
1510.63, -3.68545
1510.53, -3.68573
1510.44, -3.68602
1510.34, -3.6863
1510.25, -3.68658
1510.15, -3.68687
1510.06, -3.68715
1509.96, -3.68743
1509.87, -3.68771
1509.77, -3.688
1509.68, -3.68828
1509.58, -3.68857
1509.49, -3.68886
1509.39, -3.68915
1509.3, -3.68944
1509.2, -3.68973
1509.11, -3.69002
1509.01, -3.69031
1508.92, -3.6906
1508.82, -3.69089
1508.73, -3.69118
1508.63, -3.69147
1508.54, -3.69176
1508.44, -3.69206
1508.35, -3.69235
1508.26, -3.69264
1508.16, -3.69293
1508.07, -3.69322
1507.97, -3.69351
1507.88, -3.6938
1507.78, -3.69409
1507.69, -3.69438
1507.59, -3.69468
1507.5, -3.69499
1507.4, -3.69529
1507.31, -3.69559
1507.21, -3.69589
1507.12, -3.69619
1507.03, -3.6965
1506.93, -3.6968
1506.84, -3.6971
1506.74, -3.6974
1506.65, -3.6977
1506.55, -3.69801
1506.46, -3.69831
1506.36, -3.69861
1506.27, -3.69891
1506.18, -3.69921
1506.08, -3.69952
1505.99, -3.69982
1505.89, -3.70012
1505.8, -3.70042
1505.7, -3.70073
1505.61, -3.70105
1505.51, -3.70136
1505.42, -3.70168
1505.33, -3.70199
1505.23, -3.70231
1505.14, -3.70263
1505.04, -3.70294
1504.95, -3.70326
1504.85, -3.70357
1504.76, -3.70389
1504.67, -3.7042
1504.57, -3.70452
1504.48, -3.70483
1504.38, -3.70515
1504.29, -3.70547
1504.19, -3.70578
1504.1, -3.7061
1504.01, -3.70641
1503.91, -3.70673
1503.82, -3.70705
1503.72, -3.70738
1503.63, -3.70771
1503.54, -3.70804
1503.44, -3.70837
1503.35, -3.7087
1503.25, -3.70903
1503.16, -3.70936
1503.07, -3.70969
1502.97, -3.71002
1502.88, -3.71035
1502.78, -3.71068
1502.69, -3.71101
1502.6, -3.71134
1502.5, -3.71167
1502.41, -3.712
1502.31, -3.71233
1502.22, -3.71266
1502.13, -3.71299
1502.03, -3.71332
1501.94, -3.71365
1501.84, -3.71399
1501.75, -3.71433
1501.66, -3.71467
1601.67, -3.53052
1601.56, -3.53052
1601.45, -3.53052
1601.35, -3.53052
1601.24, -3.53052
1601.13, -3.53052
1601.03, -3.53052
1600.92, -3.53052
1600.81, -3.53052
1600.71, -3.53052
1600.6, -3.53052
1600.49, -3.53052
1600.39, -3.53052
1600.28, -3.53052
1600.17, -3.53052
1600.07, -3.53052
1599.96, -3.53053
1599.85, -3.53053
1599.75, -3.53054
1599.64, -3.53055
1599.53, -3.53055
1599.43, -3.53056
1599.32, -3.53057
1599.21, -3.53057
1599.11, -3.53058
1599, -3.53059
1598.9, -3.5306
1598.79, -3.5306
1598.68, -3.53061
1598.58, -3.53062
1598.47, -3.53062
1598.36, -3.53063
1598.26, -3.53064
1598.15, -3.53064
1598.04, -3.53065
1597.94, -3.53066
1597.83, -3.53066
1597.73, -3.53068
1597.62, -3.53069
1597.51, -3.53071
1597.41, -3.53073
1597.3, -3.53074
1597.19, -3.53076
1597.09, -3.53077
1596.98, -3.53079
1596.88, -3.5308
1596.77, -3.53082
1596.66, -3.53083
1596.56, -3.53085
1596.45, -3.53087
1596.35, -3.53088
1596.24, -3.5309
1596.13, -3.53091
1596.03, -3.53093
1595.92, -3.53094
1595.82, -3.53096
1595.71, -3.53097
1595.6, -3.53099
1595.5, -3.53102
1595.39, -3.53104
1595.29, -3.53107
1595.18, -3.53109
1595.07, -3.53112
1594.97, -3.53114
1594.86, -3.53117
1594.76, -3.53119
1594.65, -3.53122
1594.54, -3.53124
1594.44, -3.53126
1594.33, -3.53129
1594.23, -3.53131
1594.12, -3.53134
1594.02, -3.53136
1593.91, -3.53139
1593.8, -3.53141
1593.7, -3.53144
1593.59, -3.53146
1593.49, -3.53149
1593.38, -3.53152
1593.28, -3.53155
1593.17, -3.53158
1593.06, -3.53162
1592.96, -3.53165
1592.85, -3.53168
1592.75, -3.53171
1592.64, -3.53175
1592.54, -3.53178
1592.43, -3.53181
1592.33, -3.53184
1592.22, -3.53187
1592.11, -3.53191
1592.01, -3.53194
1591.9, -3.53197
1591.8, -3.532
1591.69, -3.53204
1591.59, -3.53207
1591.48, -3.5321
1591.38, -3.53213
1591.27, -3.53217
1591.16, -3.53221
1591.06, -3.53225
1590.95, -3.53229
1590.85, -3.53232
1590.74, -3.53236
1590.64, -3.5324
1590.53, -3.53244
1590.43, -3.53248
1590.32, -3.53252
1590.22, -3.53255
1590.11, -3.53259
1590.01, -3.53263
1589.9, -3.53267
1589.8, -3.53271
1589.69, -3.53275
1589.59, -3.53278
1589.48, -3.53282
1589.38, -3.53286
1589.27, -3.5329
1589.17, -3.53294
1589.06, -3.53298
1588.96, -3.53303
1588.85, -3.53307
1588.74, -3.53311
1588.64, -3.53315
1588.53, -3.5332
1588.43, -3.53324
1588.32, -3.53328
1588.22, -3.53333
1588.11, -3.53337
1588.01, -3.53341
1587.9, -3.53345
1587.8, -3.5335
1587.69, -3.53354
1587.59, -3.53358
1587.49, -3.53363
1587.38, -3.53367
1587.28, -3.53371
1587.17, -3.53375
1587.07, -3.5338
1586.96, -3.53384
1586.86, -3.53389
1586.75, -3.53394
1586.65, -3.53398
1586.54, -3.53403
1586.44, -3.53407
1586.33, -3.53412
1586.23, -3.53417
1586.12, -3.53421
1586.02, -3.53426
1585.91, -3.53431
1585.81, -3.53435
1585.7, -3.5344
1585.6, -3.53445
1585.49, -3.53449
1585.39, -3.53454
1585.29, -3.53459
1585.18, -3.53463
1585.08, -3.53468
1584.97, -3.53473
1584.87, -3.53477
1584.76, -3.53483
1584.66, -3.53488
1584.55, -3.53493
1584.45, -3.53498
1584.34, -3.53503
1584.24, -3.53508
1584.14, -3.53513
1584.03, -3.53518
1583.93, -3.53523
1583.82, -3.53528
1583.72, -3.53533
1583.61, -3.53538
1583.51, -3.53543
1583.4, -3.53549
1583.3, -3.53554
1583.2, -3.53559
1583.09, -3.53564
1582.99, -3.53569
1582.88, -3.53574
1582.78, -3.53579
1582.67, -3.53585
1582.57, -3.5359
1582.47, -3.53596
1582.36, -3.53602
1582.26, -3.53607
1582.15, -3.53613
1582.05, -3.53619
1581.95, -3.53624
1581.84, -3.5363
1581.74, -3.53636
1581.63, -3.53641
1581.53, -3.53647
1581.42, -3.53653
1581.32, -3.53658
1581.22, -3.53664
1581.11, -3.5367
1581.01, -3.53675
1580.9, -3.53681
1580.8, -3.53686
1580.7, -3.53692
1580.59, -3.53698
1580.49, -3.53705
1580.38, -3.53711
1580.28, -3.53717
1580.18, -3.53724
1580.07, -3.5373
1579.97, -3.53737
1579.86, -3.53743
1579.76, -3.5375
1579.66, -3.53756
1579.55, -3.53762
1579.45, -3.53769
1579.35, -3.53775
1579.24, -3.53782
1579.14, -3.53788
1579.03, -3.53795
1578.93, -3.53801
1578.83, -3.53807
1578.72, -3.53814
1578.62, -3.5382
1578.52, -3.53827
1578.41, -3.53834
1578.31, -3.53841
1578.2, -3.53849
1578.1, -3.53856
1578, -3.53863
1577.89, -3.53871
1577.79, -3.53878
1577.69, -3.53885
1577.58, -3.53893
1577.48, -3.539
1577.38, -3.53907
1577.27, -3.53915
1577.17, -3.53922
1577.06, -3.53929
1576.96, -3.53937
1576.86, -3.53944
1576.75, -3.53951
1576.65, -3.53959
1576.55, -3.53966
1576.44, -3.53973
1576.34, -3.53981
1576.24, -3.5399
1576.13, -3.53998
1576.03, -3.54006
1575.93, -3.54014
1575.82, -3.54023
1575.72, -3.54031
1575.62, -3.54039
1575.51, -3.54048
1575.41, -3.54056
1575.31, -3.54064
1575.2, -3.54072
1575.1, -3.54081
1575, -3.54089
1574.89, -3.54097
1574.79, -3.54106
1574.69, -3.54114
1574.58, -3.54122
1574.48, -3.5413
1574.38, -3.54139
1574.27, -3.54147
1574.17, -3.54156
1574.07, -3.54166
1573.96, -3.54175
1573.86, -3.54184
1573.76, -3.54193
1573.66, -3.54202
1573.55, -3.54211
1573.45, -3.54221
1573.35, -3.5423
1573.24, -3.54239
1573.14, -3.54248
1573.04, -3.54257
1572.93, -3.54267
1572.83, -3.54276
1572.73, -3.54285
1572.63, -3.54294
1572.52, -3.54303
1572.42, -3.54312
1572.32, -3.54322
1572.21, -3.54331
1572.11, -3.54341
1572.01, -3.54351
1571.91, -3.5436
1571.8, -3.5437
1571.7, -3.5438
1571.6, -3.5439
1571.49, -3.544
1571.39, -3.5441
1571.29, -3.5442
1571.19, -3.5443
1571.08, -3.5444
1570.98, -3.5445
1570.88, -3.5446
1570.77, -3.5447
1570.67, -3.5448
1570.57, -3.5449
1570.47, -3.545
1570.36, -3.5451
1570.26, -3.5452
1570.16, -3.5453
1570.06, -3.5454
1569.95, -3.54551
1569.85, -3.54561
1569.75, -3.54572
1569.65, -3.54583
1569.54, -3.54593
1569.44, -3.54604
1569.34, -3.54614
1569.24, -3.54625
1569.13, -3.54636
1569.03, -3.54646
1568.93, -3.54657
1568.83, -3.54668
1568.72, -3.54678
1568.62, -3.54689
1568.52, -3.547
1568.42, -3.5471
1568.31, -3.54721
1568.21, -3.54732
1568.11, -3.54742
1568.01, -3.54753
1567.9, -3.54764
1567.8, -3.54776
1567.7, -3.54787
1567.6, -3.54798
1567.5, -3.5481
1567.39, -3.54821
1567.29, -3.54833
1567.19, -3.54844
1567.09, -3.54855
1566.98, -3.54867
1566.88, -3.54878
1566.78, -3.54889
1566.68, -3.54901
1566.58, -3.54912
1566.47, -3.54924
1566.37, -3.54935
1566.27, -3.54946
1566.17, -3.54958
1566.06, -3.54969
1565.96, -3.5498
1565.86, -3.54992
1565.76, -3.55005
1565.66, -3.55017
1565.55, -3.55029
1565.45, -3.55041
1565.35, -3.55054
1565.25, -3.55066
1565.15, -3.55078
1565.04, -3.5509
1564.94, -3.55103
1564.84, -3.55115
1564.74, -3.55127
1564.64, -3.5514
1564.54, -3.55152
1564.43, -3.55164
1564.33, -3.55176
1564.23, -3.55189
1564.13, -3.55201
1564.03, -3.55213
1563.92, -3.55225
1563.82, -3.55238
1563.72, -3.55251
1563.62, -3.55265
1563.52, -3.55278
1563.42, -3.55292
1563.31, -3.55305
1563.21, -3.55319
1563.11, -3.55332
1563.01, -3.55345
1562.91, -3.55359
1562.8, -3.55372
1562.7, -3.55386
1562.6, -3.55399
1562.5, -3.55413
1562.4, -3.55426
1562.3, -3.5544
1562.2, -3.55453
1562.09, -3.55466
1561.99, -3.5548
1561.89, -3.55493
1561.79, -3.55507
1561.69, -3.55521
1561.59, -3.55536
1561.48, -3.55551
1561.38, -3.55566
1561.28, -3.55581
1561.18, -3.55596
1561.08, -3.55611
1560.98, -3.55626
1560.88, -3.55641
1560.77, -3.55656
1560.67, -3.55671
1560.57, -3.55686
1560.47, -3.55701
1560.37, -3.55715
1560.27, -3.5573
1560.17, -3.55745
1560.06, -3.5576
1559.96, -3.55775
1559.86, -3.5579
1559.76, -3.55805
1559.66, -3.5582
1559.56, -3.55837
1559.46, -3.55854
1559.36, -3.55871
1559.25, -3.55887
1559.15, -3.55904
1559.05, -3.55921
1558.95, -3.55937
1558.85, -3.55954
1558.75, -3.55971
1558.65, -3.55987
1558.55, -3.56004
1558.45, -3.56021
1558.34, -3.56037
1558.24, -3.56054
1558.14, -3.56071
1558.04, -3.56087
1557.94, -3.56104
1557.84, -3.56121
1557.74, -3.56137
1557.64, -3.56154
1557.54, -3.56172
1557.44, -3.56191
1557.33, -3.56209
1557.23, -3.56228
1557.13, -3.56246
1557.03, -3.56265
1556.93, -3.56283
1556.83, -3.56302
1556.73, -3.5632
1556.63, -3.56339
1556.53, -3.56357
1556.43, -3.56376
1556.33, -3.56394
1556.22, -3.56413
1556.12, -3.56432
1556.02, -3.5645
1555.92, -3.56469
1555.82, -3.56487
1555.72, -3.56506
1555.62, -3.56524
1555.52, -3.56543
1555.42, -3.56564
1555.32, -3.56584
1555.22, -3.56604
1555.12, -3.56624
1555.02, -3.56645
1554.92, -3.56665
1554.81, -3.56685
1554.71, -3.56705
1554.61, -3.56726
1554.51, -3.56746
1554.41, -3.56766
1554.31, -3.56787
1554.21, -3.56807
1554.11, -3.56827
1554.01, -3.56847
1553.91, -3.56868
1553.81, -3.56888
1553.71, -3.56908
1553.61, -3.56929
1553.51, -3.56949
1553.41, -3.56971
1553.31, -3.56992
1553.21, -3.57014
1553.11, -3.57036
1553.01, -3.57058
1552.91, -3.5708
1552.81, -3.57101
1552.7, -3.57123
1552.6, -3.57145
1552.5, -3.57167
1552.4, -3.57189
1552.3, -3.5721
1552.2, -3.57232
1552.1, -3.57254
1552, -3.57276
1551.9, -3.57298
1551.8, -3.5732
1551.7, -3.57341
1551.6, -3.57363
1551.5, -3.57385
1551.4, -3.57407
1551.3, -3.5743
1551.2, -3.57454
1551.1, -3.57477
1551, -3.575
1550.9, -3.57523
1550.8, -3.57546
1550.7, -3.57569
1550.6, -3.57592
1550.5, -3.57615
1550.4, -3.57638
1550.3, -3.57661
1550.2, -3.57684
1550.1, -3.57707
1550, -3.5773
1549.9, -3.57754
1549.8, -3.57777
1549.7, -3.578
1549.6, -3.57823
1549.5, -3.57846
1549.4, -3.57869
1549.3, -3.57893
1549.2, -3.57917
1549.1, -3.5794
1549, -3.57964
1548.9, -3.57988
1548.8, -3.58012
1548.7, -3.58036
1548.6, -3.5806
1548.5, -3.58084
1548.4, -3.58108
1548.3, -3.58132
1548.2, -3.58156
1548.1, -3.5818
1548, -3.58205
1547.9, -3.58229
1547.8, -3.58253
1547.7, -3.58278
1547.6, -3.58302
1547.5, -3.58326
1547.4, -3.58351
1547.3, -3.58376
1547.21, -3.58401
1547.11, -3.58425
1547.01, -3.5845
1546.91, -3.58475
1546.81, -3.585
1546.71, -3.58525
1546.61, -3.5855
1546.51, -3.58575
1546.41, -3.586
1546.31, -3.58625
1546.21, -3.5865
1546.11, -3.58675
1546.01, -3.587
1545.91, -3.58725
1545.81, -3.5875
1545.71, -3.58775
1545.61, -3.588
1545.51, -3.58825
1545.41, -3.5885
1545.31, -3.58875
1545.21, -3.58901
1545.12, -3.58927
1545.02, -3.58953
1544.92, -3.58978
1544.82, -3.59004
1544.72, -3.5903
1544.62, -3.59056
1544.52, -3.59082
1544.42, -3.59107
1544.32, -3.59133
1544.22, -3.59159
1544.12, -3.59185
1544.02, -3.59211
1543.92, -3.59236
1543.82, -3.59262
1543.73, -3.59288
1543.63, -3.59314
1543.53, -3.5934
1543.43, -3.59366
1543.33, -3.59391
1543.23, -3.59418
1543.13, -3.59444
1543.03, -3.59471
1542.93, -3.59498
1542.83, -3.59524
1542.73, -3.59551
1542.64, -3.59578
1542.54, -3.59604
1542.44, -3.59631
1542.34, -3.59657
1542.24, -3.59684
1542.14, -3.59711
1542.04, -3.59737
1541.94, -3.59764
1541.84, -3.59791
1541.74, -3.59817
1541.65, -3.59844
1541.55, -3.59871
1541.45, -3.59897
1541.35, -3.59924
1541.25, -3.59951
1541.15, -3.59978
1541.05, -3.60006
1540.95, -3.60033
1540.85, -3.6006
1540.76, -3.60088
1540.66, -3.60115
1540.56, -3.60143
1540.46, -3.6017
1540.36, -3.60198
1540.26, -3.60225
1540.16, -3.60252
1540.06, -3.6028
1539.97, -3.60307
1539.87, -3.60335
1539.77, -3.60362
1539.67, -3.6039
1539.57, -3.60417
1539.47, -3.60444
1539.37, -3.60472
1539.27, -3.60499
1539.18, -3.60527
1539.08, -3.60555
1538.98, -3.60583
1538.88, -3.60611
1538.78, -3.60639
1538.68, -3.60667
1538.58, -3.60695
1538.49, -3.60724
1538.39, -3.60752
1538.29, -3.6078
1538.19, -3.60808
1538.09, -3.60836
1537.99, -3.60864
1537.9, -3.60892
1537.8, -3.6092
1537.7, -3.60948
1537.6, -3.60976
1537.5, -3.61004
1537.4, -3.61032
1537.3, -3.6106
1537.21, -3.61088
1537.11, -3.61117
1537.01, -3.61145
1536.91, -3.61174
1536.81, -3.61202
1536.71, -3.6123
1536.62, -3.61259
1536.52, -3.61287
1536.42, -3.61316
1536.32, -3.61344
1536.22, -3.61372
1536.13, -3.61401
1536.03, -3.61429
1535.93, -3.61458
1535.83, -3.61486
1535.73, -3.61514
1535.63, -3.61543
1535.54, -3.61571
1535.44, -3.616
1535.34, -3.61628
1535.24, -3.61657
1535.14, -3.61685
1535.05, -3.61713
1534.95, -3.61742
1534.85, -3.6177
1534.75, -3.61798
1534.65, -3.61827
1534.56, -3.61855
1534.46, -3.61884
1534.36, -3.61912
1534.26, -3.6194
1534.16, -3.61969
1534.07, -3.61997
1533.97, -3.62025
1533.87, -3.62054
1533.77, -3.62082
1533.67, -3.62111
1533.58, -3.62139
1533.48, -3.62167
1533.38, -3.62196
1533.28, -3.62224
1533.18, -3.62252
1533.09, -3.6228
1532.99, -3.62308
1532.89, -3.62336
1532.79, -3.62364
1532.7, -3.62392
1532.6, -3.6242
1532.5, -3.62448
1532.4, -3.62476
1532.3, -3.62504
1532.21, -3.62532
1532.11, -3.6256
1532.01, -3.62588
1531.91, -3.62616
1531.82, -3.62644
1531.72, -3.62672
1531.62, -3.627
1531.52, -3.62728
1531.43, -3.62756
1531.33, -3.62784
1531.23, -3.62812
1531.13, -3.6284
1531.03, -3.62867
1530.94, -3.62894
1530.84, -3.62922
1530.74, -3.62949
1530.64, -3.62977
1530.55, -3.63004
1530.45, -3.63031
1530.35, -3.63059
1530.25, -3.63086
1530.16, -3.63113
1530.06, -3.63141
1529.96, -3.63168
1529.87, -3.63196
1529.77, -3.63223
1529.67, -3.6325
1529.57, -3.63278
1529.48, -3.63305
1529.38, -3.63333
1529.28, -3.6336
1529.18, -3.63387
1529.09, -3.63413
1528.99, -3.6344
1528.89, -3.63467
1528.79, -3.63494
1528.7, -3.6352
1528.6, -3.63547
1528.5, -3.63574
1528.41, -3.636
1528.31, -3.63627
1528.21, -3.63654
1528.11, -3.6368
1528.02, -3.63707
1527.92, -3.63734
1527.82, -3.6376
1527.72, -3.63787
1527.63, -3.63814
1527.53, -3.63841
1527.43, -3.63867
1527.34, -3.63894
1527.24, -3.6392
1527.14, -3.63947
1527.05, -3.63973
1526.95, -3.63999
1526.85, -3.64025
1526.75, -3.64051
1526.66, -3.64077
1526.56, -3.64103
1526.46, -3.64129
1526.37, -3.64156
1526.27, -3.64182
1526.17, -3.64208
1526.08, -3.64234
1525.98, -3.6426
1525.88, -3.64286
1525.78, -3.64312
1525.69, -3.64339
1525.59, -3.64365
1525.49, -3.64391
1525.4, -3.64417
1525.3, -3.64443
1525.2, -3.64469
1525.11, -3.64495
1525.01, -3.64521
1524.91, -3.64547
1524.82, -3.64572
1524.72, -3.64598
1524.62, -3.64624
1524.53, -3.6465
1524.43, -3.64676
1524.33, -3.64702
1524.24, -3.64728
1524.14, -3.64753
1524.04, -3.64779
1523.95, -3.64805
1523.85, -3.64831
1523.75, -3.64857
1523.66, -3.64883
1523.56, -3.64909
1523.46, -3.64934
1523.37, -3.6496
1523.27, -3.64986
1523.17, -3.65012
1523.08, -3.65038
1522.98, -3.65064
1522.88, -3.6509
1522.79, -3.65115
1522.69, -3.65141
1522.59, -3.65167
1522.5, -3.65193
1522.4, -3.65219
1522.3, -3.65245
1522.21, -3.65271
1522.11, -3.65297
1522.01, -3.65322
1521.92, -3.65348
1521.82, -3.65374
1521.73, -3.654
1521.63, -3.65426
1521.53, -3.65452
1521.44, -3.65478
1521.34, -3.65504
1521.24, -3.6553
1521.15, -3.65556
1521.05, -3.65582
1520.95, -3.65608
1520.86, -3.65634
1520.76, -3.6566
1520.67, -3.65686
1520.57, -3.65713
1520.47, -3.65739
1520.38, -3.65765
1520.28, -3.65791
1520.18, -3.65817
1520.09, -3.65843
1519.99, -3.65869
1519.9, -3.65896
1519.8, -3.65922
1519.7, -3.65948
1519.61, -3.65974
1519.51, -3.66
1519.42, -3.66026
1519.32, -3.66053
1519.22, -3.66079
1519.13, -3.66106
1519.03, -3.66132
1518.94, -3.66159
1518.84, -3.66185
1518.74, -3.66212
1518.65, -3.66238
1518.55, -3.66265
1518.46, -3.66292
1518.36, -3.66318
1518.26, -3.66345
1518.17, -3.66371
1518.07, -3.66398
1517.98, -3.66424
1517.88, -3.66451
1517.78, -3.66477
1517.69, -3.66504
1517.59, -3.6653
1517.5, -3.66557
1517.4, -3.66584
1517.3, -3.6661
1517.21, -3.66637
1517.11, -3.66664
1517.02, -3.66691
1516.92, -3.66718
1516.83, -3.66745
1516.73, -3.66772
1516.63, -3.66799
1516.54, -3.66826
1516.44, -3.66853
1516.35, -3.6688
1516.25, -3.66907
1516.16, -3.66934
1516.06, -3.66961
1515.96, -3.66988
1515.87, -3.67015
1515.77, -3.67042
1515.68, -3.67069
1515.58, -3.67096
1515.49, -3.67123
1515.39, -3.6715
1515.29, -3.67177
1515.2, -3.67205
1515.1, -3.67232
1515.01, -3.67259
1514.91, -3.67287
1514.82, -3.67314
1514.72, -3.67341
1514.63, -3.67369
1514.53, -3.67396
1514.44, -3.67423
1514.34, -3.67451
1514.24, -3.67478
1514.15, -3.67505
1514.05, -3.67533
1513.96, -3.6756
1513.86, -3.67587
1513.77, -3.67615
1513.67, -3.67642
1513.58, -3.6767
1513.48, -3.67697
1513.39, -3.67725
1513.29, -3.67753
1513.2, -3.6778
1513.1, -3.67808
1513, -3.67836
1512.91, -3.67864
1512.81, -3.67891
1512.72, -3.67919
1512.62, -3.67947
1512.53, -3.67975
1512.43, -3.68003
1512.34, -3.6803
1512.24, -3.68058
1512.15, -3.68086
1512.05, -3.68114
1511.96, -3.68142
1511.86, -3.68169
1511.77, -3.68197
1511.67, -3.68225
1511.58, -3.68253
1511.48, -3.68281
1511.39, -3.68309
1511.29, -3.68338
1511.2, -3.68366
1511.1, -3.68394
1511.01, -3.68423
1510.91, -3.68451
1510.82, -3.68479
1510.72, -3.68508
1510.63, -3.68536
1510.53, -3.68564
1510.44, -3.68593
1510.34, -3.68621
1510.25, -3.6865
1510.15, -3.68678
1510.06, -3.68706
1509.96, -3.68735
1509.87, -3.68763
1509.77, -3.68791
1509.68, -3.6882
1509.58, -3.68848
1509.49, -3.68878
1509.39, -3.68907
1509.3, -3.68936
1509.2, -3.68965
1509.11, -3.68994
1509.01, -3.69023
1508.92, -3.69053
1508.82, -3.69082
1508.73, -3.69111
1508.63, -3.6914
1508.54, -3.69169
1508.44, -3.69199
1508.35, -3.69228
1508.26, -3.69257
1508.16, -3.69286
1508.07, -3.69315
1507.97, -3.69344
1507.88, -3.69374
1507.78, -3.69403
1507.69, -3.69432
1507.59, -3.69462
1507.5, -3.69493
1507.4, -3.69523
1507.31, -3.69553
1507.21, -3.69584
1507.12, -3.69614
1507.03, -3.69644
1506.93, -3.69675
1506.84, -3.69705
1506.74, -3.69735
1506.65, -3.69765
1506.55, -3.69796
1506.46, -3.69826
1506.36, -3.69856
1506.27, -3.69887
1506.18, -3.69917
1506.08, -3.69947
1505.99, -3.69978
1505.89, -3.70008
1505.8, -3.70038
1505.7, -3.7007
1505.61, -3.70101
1505.51, -3.70133
1505.42, -3.70165
1505.33, -3.70196
1505.23, -3.70228
1505.14, -3.7026
1505.04, -3.70291
1504.95, -3.70323
1504.85, -3.70355
1504.76, -3.70387
1504.67, -3.70418
1504.57, -3.7045
1504.48, -3.70482
1504.38, -3.70513
1504.29, -3.70545
1504.19, -3.70577
1504.1, -3.70608
1504.01, -3.7064
1503.91, -3.70672
1503.82, -3.70704
1503.72, -3.70737
1503.63, -3.7077
1503.54, -3.70803
1503.44, -3.70837
1503.35, -3.7087
1503.25, -3.70903
1503.16, -3.70936
1503.07, -3.70969
1502.97, -3.71002
1502.88, -3.71036
1502.78, -3.71069
1502.69, -3.71102
1502.6, -3.71135
1502.5, -3.71168
1502.41, -3.71202
1502.31, -3.71235
1502.22, -3.71268
1502.13, -3.71301
1502.03, -3.71334
1501.94, -3.71368
1501.84, -3.71402
1501.75, -3.71436
1501.66, -3.71471


